wavenumbers   absorbance
399.371407  	47.693556 
400.807994  	47.059977 
402.244582  	48.819368 
403.681170  	50.351271 
405.117758  	52.635572 
406.554346  	54.632150 
407.990933  	55.287593 
409.427521  	57.180623 
410.864109  	60.327991 
412.300697  	62.637655 
413.737285  	64.346255 
415.173872  	66.146314 
416.610460  	68.354364 
418.047048  	70.074888 
419.483636  	70.253513 
420.920224  	70.910892 
422.356811  	70.896299 
423.793399  	69.873099 
425.229987  	70.436025 
426.666575  	71.453540 
428.103163  	71.262854 
429.539750  	71.467679 
430.976338  	71.959985 
432.412926  	71.296416 
433.849514  	70.957105 
435.286101  	71.407128 
436.722689  	71.211776 
438.159277  	71.661933 
439.595865  	72.807576 
441.032453  	72.781340 
442.469040  	72.666012 
443.905628  	72.879125 
445.342216  	72.515056 
446.778804  	73.012648 
448.215392  	73.808072 
449.651979  	73.599865 
451.088567  	73.776383 
452.525155  	74.672680 
453.961743  	75.468707 
455.398331  	76.046541 
456.834918  	76.429750 
458.271506  	76.714073 
459.708094  	76.842781 
461.144682  	76.865706 
462.581270  	76.677681 
464.017857  	76.317299 
465.454445  	76.691077 
466.891033  	77.291780 
468.327621  	77.302953 
469.764209  	77.615492 
471.200796  	77.856563 
472.637384  	77.822417 
474.073972  	78.253570 
475.510560  	78.192156 
476.947148  	77.964674 
478.383735  	78.180556 
479.820323  	77.950350 
481.256911  	77.842445 
482.693499  	77.963880 
484.130086  	77.635407 
485.566674  	77.697254 
487.003262  	77.859028 
488.439850  	77.678887 
489.876438  	77.751615 
491.313025  	77.531460 
492.749613  	77.015050 
494.186201  	76.827314 
495.622789  	76.697248 
497.059377  	76.682353 
498.495964  	76.782712 
499.932552  	76.930420 
501.369140  	77.168050 
502.805728  	77.037201 
504.242316  	76.815547 
505.678903  	76.733110 
507.115491  	76.651086 
508.552079  	76.931685 
509.988667  	76.985524 
511.425255  	76.718744 
512.861842  	76.930780 
514.298430  	76.895259 
515.735018  	76.497073 
517.171606  	76.593765 
518.608194  	76.645198 
520.044781  	76.499736 
521.481369  	76.460918 
522.917957  	76.385570 
524.354545  	76.662991 
525.791132  	77.118039 
527.227720  	77.214971 
528.664308  	77.215415 
530.100896  	77.103870 
531.537484  	77.053832 
532.974071  	77.275801 
534.410659  	77.258234 
535.847247  	77.106486 
537.283835  	77.206324 
538.720423  	77.270487 
540.157010  	77.264232 
541.593598  	77.415623 
543.030186  	77.616532 
544.466774  	77.632684 
545.903362  	77.512554 
547.339949  	77.492653 
548.776537  	77.557944 
550.213125  	77.677368 
551.649713  	77.838987 
553.086301  	77.861092 
554.522888  	77.893095 
555.959476  	78.101606 
557.396064  	78.237437 
558.832652  	78.267542 
560.269240  	78.357176 
561.705827  	78.439667 
563.142415  	78.456991 
564.579003  	78.569862 
566.015591  	78.884653 
567.452179  	79.244890 
568.888766  	79.475741 
570.325354  	79.550317 
571.761942  	79.615697 
573.198530  	79.899235 
574.635117  	80.329724 
576.071705  	80.793419 
577.508293  	81.279931 
578.944881  	81.658043 
580.381469  	82.110241 
581.818056  	82.788406 
583.254644  	83.424238 
584.691232  	83.995186 
586.127820  	84.430429 
587.564408  	84.706536 
589.000995  	85.131718 
590.437583  	85.455771 
591.874171  	85.424671 
593.310759  	85.245106 
594.747347  	84.771064 
596.183934  	84.111497 
597.620522  	83.554638 
599.057110  	82.949298 
600.493698  	82.643543 
601.930286  	83.088690 
603.366873  	83.986175 
604.803461  	85.067475 
606.240049  	86.061653 
607.676637  	86.757622 
609.113225  	87.192231 
610.549812  	87.393147 
611.986400  	87.443497 
613.422988  	87.285372 
614.859576  	87.068078 
616.296163  	87.028271 
617.732751  	86.922263 
619.169339  	86.783823 
620.605927  	86.724569 
622.042515  	86.494800 
623.479102  	86.272770 
624.915690  	86.180283 
626.352278  	86.134477 
627.788866  	86.214702 
629.225454  	86.181124 
630.662041  	86.088338 
632.098629  	86.151984 
633.535217  	86.161893 
634.971805  	86.281671 
636.408393  	86.459233 
637.844980  	86.421315 
639.281568  	86.502632 
640.718156  	86.648718 
642.154744  	86.772682 
643.591332  	86.875445 
645.027919  	86.541300 
646.464507  	86.237602 
647.901095  	86.010678 
649.337683  	85.188649 
650.774271  	84.465357 
652.210858  	83.923829 
653.647446  	82.736043 
655.084034  	80.738617 
656.520622  	77.727113 
657.957210  	74.175783 
659.393797  	71.326771 
660.830385  	70.396971 
662.266973  	70.977509 
663.703561  	71.867691 
665.140148  	72.425373 
666.576736  	72.963408 
668.013324  	73.426659 
669.449912  	72.985311 
670.886500  	72.754843 
672.323087  	72.544183 
673.759675  	72.138462 
675.196263  	71.654090 
676.632851  	70.865146 
678.069439  	69.969885 
679.506026  	69.107842 
680.942614  	68.087582 
682.379202  	67.041865 
683.815790  	65.936640 
685.252378  	65.038323 
686.688965  	64.549108 
688.125553  	64.254313 
689.562141  	64.305242 
690.998729  	64.565950 
692.435317  	64.840940 
693.871904  	65.130189 
695.308492  	65.251189 
696.745080  	65.320940 
698.181668  	65.379927 
699.618256  	65.299273 
701.054843  	65.334458 
702.491431  	65.523479 
703.928019  	65.875777 
705.364607  	66.616650 
706.801194  	67.623498 
708.237782  	68.894531 
709.674370  	70.410155 
711.110958  	71.846043 
712.547546  	73.092338 
713.984133  	74.033530 
715.420721  	74.485888 
716.857309  	74.640225 
718.293897  	74.643238 
719.730485  	74.413081 
721.167072  	74.062845 
722.603660  	73.618853 
724.040248  	73.060135 
725.476836  	72.465970 
726.913424  	71.777360 
728.350011  	71.058025 
729.786599  	70.353112 
731.223187  	69.531332 
732.659775  	68.627853 
734.096363  	67.640284 
735.532950  	66.491461 
736.969538  	65.227369 
738.406126  	63.894051 
739.842714  	62.505836 
741.279302  	60.983056 
742.715889  	59.310049 
744.152477  	57.480509 
745.589065  	55.307208 
747.025653  	52.773221 
748.462241  	49.854995 
749.898828  	46.548031 
751.335416  	43.221603 
752.772004  	40.155520 
754.208592  	37.862550 
755.645179  	36.902128 
757.081767  	37.151167 
758.518355  	38.374156 
759.954943  	39.913144 
761.391531  	40.974944 
762.828118  	41.365040 
764.264706  	40.941621 
765.701294  	39.753420 
767.137882  	38.052910 
768.574470  	35.877408 
770.011057  	33.446326 
771.447645  	30.787230 
772.884233  	27.842625 
774.320821  	25.002215 
775.757409  	22.199348 
777.193996  	19.388964 
778.630584  	16.849981 
780.067172  	14.499715 
781.503760  	12.608122 
782.940348  	11.178592 
784.376935  	9.970485 
785.813523  	9.315982 
787.250111  	8.996053 
788.686699  	9.009465 
790.123287  	9.619602 
791.559874  	10.349093 
792.996462  	11.341754 
794.433050  	12.652589 
795.869638  	13.937030 
797.306225  	15.572720 
798.742813  	17.419985 
800.179401  	19.317059 
801.615989  	21.578829 
803.052577  	23.899868 
804.489164  	26.237102 
805.925752  	28.644973 
807.362340  	30.880045 
808.798928  	33.075358 
810.235516  	35.109335 
811.672103  	36.888965 
813.108691  	38.551843 
814.545279  	39.908271 
815.981867  	41.146992 
817.418455  	42.518557 
818.855042  	44.043288 
820.291630  	46.096699 
821.728218  	48.641748 
823.164806  	51.375930 
824.601394  	54.171069 
826.037981  	56.643353 
827.474569  	58.590669 
828.911157  	59.898284 
830.347745  	60.390014 
831.784333  	60.253542 
833.220920  	59.579856 
834.657508  	58.314081 
836.094096  	56.677541 
837.530684  	54.792749 
838.967272  	52.908982 
840.403859  	51.419457 
841.840447  	50.388302 
843.277035  	50.041141 
844.713623  	50.502128 
846.150210  	51.559895 
847.586798  	53.057952 
849.023386  	54.729992 
850.459974  	56.411845 
851.896562  	57.896371 
853.333149  	58.910064 
854.769737  	59.522056 
856.206325  	59.677064 
857.642913  	59.286183 
859.079501  	58.621591 
860.516088  	57.833316 
861.952676  	57.099259 
863.389264  	56.728986 
864.825852  	56.825161 
866.262440  	57.536337 
867.699027  	58.822700 
869.135615  	60.556271 
870.572203  	62.758327 
872.008791  	65.167559 
873.445379  	67.591647 
874.881966  	69.960652 
876.318554  	72.117549 
877.755142  	74.105573 
879.191730  	75.951335 
880.628318  	77.632817 
882.064905  	79.187191 
883.501493  	80.563300 
884.938081  	81.780816 
886.374669  	82.859154 
887.811256  	83.762502 
889.247844  	84.560329 
890.684432  	85.251844 
892.121020  	85.827367 
893.557608  	86.373640 
894.994195  	86.855469 
896.430783  	87.232120 
897.867371  	87.542716 
899.303959  	87.771514 
900.740547  	87.914137 
902.177134  	87.953707 
903.613722  	87.884790 
905.050310  	87.800404 
906.486898  	87.703801 
907.923486  	87.566984 
909.360073  	87.497935 
910.796661  	87.565712 
912.233249  	87.797446 
913.669837  	88.195494 
915.106425  	88.676137 
916.543012  	89.199037 
917.979600  	89.722235 
919.416188  	90.181600 
920.852776  	90.600155 
922.289364  	90.957550 
923.725951  	91.171888 
925.162539  	91.307330 
926.599127  	91.462349 
928.035715  	91.564525 
929.472303  	91.547359 
930.908890  	91.496384 
932.345478  	91.473364 
933.782066  	91.439081 
935.218654  	91.372920 
936.655241  	91.254242 
938.091829  	91.057590 
939.528417  	90.863626 
940.965005  	90.711475 
942.401593  	90.489183 
943.838180  	90.168672 
945.274768  	89.823892 
946.711356  	89.442254 
948.147944  	88.969871 
949.584532  	88.409858 
951.021119  	87.796097 
952.457707  	87.138596 
953.894295  	86.454208 
955.330883  	85.759795 
956.767471  	85.020180 
958.204058  	84.281408 
959.640646  	83.566461 
961.077234  	82.737654 
962.513822  	81.810957 
963.950410  	80.839917 
965.386997  	79.707528 
966.823585  	78.439005 
968.260173  	77.084375 
969.696761  	75.586817 
971.133349  	73.962772 
972.569936  	72.207041 
974.006524  	70.348182 
975.443112  	68.367494 
976.879700  	66.164622 
978.316288  	63.844743 
979.752875  	61.424870 
981.189463  	58.854077 
982.626051  	56.205307 
984.062639  	53.359791 
985.499226  	50.393255 
986.935814  	47.450267 
988.372402  	44.377693 
989.808990  	41.289920 
991.245578  	38.185293 
992.682165  	34.969140 
994.118753  	31.876092 
995.555341  	28.806401 
996.991929  	25.817710 
998.428517  	23.108370 
999.865104  	20.481029 
1001.301692  	18.180880 
1002.738280  	16.277685 
1004.174868  	14.595423 
1005.611456  	13.425375 
1007.048043  	12.593906 
1008.484631  	12.062070 
1009.921219  	12.059179 
1011.357807  	12.310842 
1012.794395  	12.920551 
1014.230982  	13.802676 
1015.667570  	14.680500 
1017.104158  	15.818157 
1018.540746  	16.963503 
1019.977334  	17.976509 
1021.413921  	19.047324 
1022.850509  	19.917053 
1024.287097  	20.763417 
1025.723685  	21.624287 
1027.160272  	22.237452 
1028.596860  	22.876950 
1030.033448  	23.396586 
1031.470036  	23.713822 
1032.906624  	24.111295 
1034.343211  	24.346629 
1035.779799  	24.517486 
1037.216387  	24.720875 
1038.652975  	24.735884 
1040.089563  	24.814114 
1041.526150  	24.830539 
1042.962738  	24.716399 
1044.399326  	24.743938 
1045.835914  	24.598754 
1047.272502  	24.411927 
1048.709089  	24.381501 
1050.145677  	24.217588 
1051.582265  	24.176532 
1053.018853  	24.172829 
1054.455441  	24.042790 
1055.892028  	24.091695 
1057.328616  	24.066446 
1058.765204  	24.064024 
1060.201792  	24.263723 
1061.638380  	24.319864 
1063.074967  	24.494167 
1064.511555  	24.747614 
1065.948143  	24.901622 
1067.384731  	25.281134 
1068.821319  	25.569112 
1070.257906  	25.817084 
1071.694494  	26.330626 
1073.131082  	26.749024 
1074.567670  	27.273906 
1076.004257  	27.933112 
1077.440845  	28.495465 
1078.877433  	29.282175 
1080.314021  	30.080433 
1081.750609  	30.867629 
1083.187196  	31.894631 
1084.623784  	32.866196 
1086.060372  	33.971859 
1087.496960  	35.252090 
1088.933548  	36.498282 
1090.370135  	37.968067 
1091.806723  	39.432584 
1093.243311  	40.895349 
1094.679899  	42.634850 
1096.116487  	44.326932 
1097.553074  	46.080944 
1098.989662  	47.967615 
1100.426250  	49.753733 
1101.862838  	51.651941 
1103.299426  	53.525923 
1104.736013  	55.287338 
1106.172601  	57.163698 
1107.609189  	58.961944 
1109.045777  	60.699678 
1110.482365  	62.445827 
1111.918952  	64.061008 
1113.355540  	65.679727 
1114.792128  	67.233370 
1116.228716  	68.658327 
1117.665303  	70.085901 
1119.101891  	71.365630 
1120.538479  	72.525045 
1121.975067  	73.665824 
1123.411655  	74.680670 
1124.848242  	75.651836 
1126.284830  	76.557636 
1127.721418  	77.318629 
1129.158006  	78.040972 
1130.594594  	78.662340 
1132.031181  	79.170027 
1133.467769  	79.644462 
1134.904357  	80.035934 
1136.340945  	80.423559 
1137.777533  	80.860064 
1139.214120  	81.306509 
1140.650708  	81.795945 
1142.087296  	82.254402 
1143.523884  	82.663108 
1144.960472  	83.050434 
1146.397059  	83.350034 
1147.833647  	83.630492 
1149.270235  	83.900026 
1150.706823  	84.086602 
1152.143411  	84.279599 
1153.579998  	84.454566 
1155.016586  	84.566530 
1156.453174  	84.704510 
1157.889762  	84.834399 
1159.326350  	84.935546 
1160.762937  	85.040958 
1162.199525  	85.127492 
1163.636113  	85.214212 
1165.072701  	85.272925 
1166.509288  	85.305618 
1167.945876  	85.376319 
1169.382464  	85.429145 
1170.819052  	85.463935 
1172.255640  	85.526996 
1173.692227  	85.574548 
1175.128815  	85.617271 
1176.565403  	85.668143 
1178.001991  	85.723671 
1179.438579  	85.785134 
1180.875166  	85.816124 
1182.311754  	85.865084 
1183.748342  	85.938716 
1185.184930  	85.984337 
1186.621518  	86.056934 
1188.058105  	86.137719 
1189.494693  	86.209445 
1190.931281  	86.335703 
1192.367869  	86.467386 
1193.804457  	86.610485 
1195.241044  	86.793723 
1196.677632  	86.961737 
1198.114220  	87.165801 
1199.550808  	87.409540 
1200.987396  	87.642769 
1202.423983  	87.917344 
1203.860571  	88.220730 
1205.297159  	88.533025 
1206.733747  	88.868907 
1208.170334  	89.200471 
1209.606922  	89.558958 
1211.043510  	89.946475 
1212.480098  	90.311804 
1213.916686  	90.664442 
1215.353273  	91.005050 
1216.789861  	91.329350 
1218.226449  	91.643541 
1219.663037  	91.926373 
1221.099625  	92.172787 
1222.536212  	92.382258 
1223.972800  	92.549358 
1225.409388  	92.673537 
1226.845976  	92.752554 
1228.282564  	92.799500 
1229.719151  	92.791926 
1231.155739  	92.690569 
1232.592327  	92.514807 
1234.028915  	92.262261 
1235.465503  	91.893667 
1236.902090  	91.394093 
1238.338678  	90.724350 
1239.775266  	89.829893 
1241.211854  	88.618468 
1242.648442  	86.915228 
1244.085029  	84.557334 
1245.521617  	81.254520 
1246.958205  	76.560339 
1248.394793  	70.379026 
1249.831381  	63.171627 
1251.267968  	56.147223 
1252.704556  	50.692849 
1254.141144  	46.727361 
1255.577732  	43.841887 
1257.014319  	42.168163 
1258.450907  	41.921466 
1259.887495  	43.794630 
1261.324083  	47.792631 
1262.760671  	53.530833 
1264.197258  	60.693604 
1265.633846  	68.142603 
1267.070434  	74.968717 
1268.507022  	80.633213 
1269.943610  	84.819395 
1271.380197  	87.817860 
1272.816785  	89.953723 
1274.253373  	91.446316 
1275.689961  	92.588523 
1277.126549  	93.476892 
1278.563136  	94.145074 
1279.999724  	94.681686 
1281.436312  	95.087469 
1282.872900  	95.420429 
1284.309488  	95.738451 
1285.746075  	96.007135 
1287.182663  	96.247811 
1288.619251  	96.455843 
1290.055839  	96.609619 
1291.492427  	96.749885 
1292.929014  	96.874249 
1294.365602  	96.999637 
1295.802190  	97.142241 
1297.238778  	97.251657 
1298.675365  	97.343811 
1300.111953  	97.438658 
1301.548541  	97.514748 
1302.985129  	97.588394 
1304.421717  	97.651841 
1305.858304  	97.714387 
1307.294892  	97.788071 
1308.731480  	97.836969 
1310.168068  	97.897869 
1311.604656  	97.972457 
1313.041243  	98.003914 
1314.477831  	98.054781 
1315.914419  	98.144352 
1317.351007  	98.200644 
1318.787595  	98.221701 
1320.224182  	98.240946 
1321.660770  	98.296989 
1323.097358  	98.364955 
1324.533946  	98.395014 
1325.970534  	98.444419 
1327.407121  	98.506571 
1328.843709  	98.517117 
1330.280297  	98.522460 
1331.716885  	98.538141 
1333.153473  	98.554931 
1334.590060  	98.582395 
1336.026648  	98.591749 
1337.463236  	98.608108 
1338.899824  	98.606268 
1340.336412  	98.536592 
1341.772999  	98.522342 
1343.209587  	98.565859 
1344.646175  	98.580156 
1346.082763  	98.589998 
1347.519350  	98.600492 
1348.955938  	98.605420 
1350.392526  	98.608504 
1351.829114  	98.597393 
1353.265702  	98.603675 
1354.702289  	98.604620 
1356.138877  	98.586625 
1357.575465  	98.588974 
1359.012053  	98.583424 
1360.448641  	98.594493 
1361.885228  	98.586334 
1363.321816  	98.457911 
1364.758404  	98.408129 
1366.194992  	98.474312 
1367.631580  	98.464364 
1369.068167  	98.389274 
1370.504755  	98.351504 
1371.941343  	98.367155 
1373.377931  	98.359692 
1374.814519  	98.256261 
1376.251106  	98.236202 
1377.687694  	98.265506 
1379.124282  	98.185568 
1380.560870  	98.137143 
1381.997458  	98.093005 
1383.434045  	97.974523 
1384.870633  	97.959637 
1386.307221  	97.897230 
1387.743809  	97.636218 
1389.180396  	97.460321 
1390.616984  	97.327238 
1392.053572  	97.159379 
1393.490160  	96.920114 
1394.926748  	96.412118 
1396.363335  	95.989722 
1397.799923  	95.782281 
1399.236511  	95.416105 
1400.673099  	95.100069 
1402.109687  	95.030436 
1403.546274  	94.931512 
1404.982862  	94.704131 
1406.419450  	94.515362 
1407.856038  	94.403069 
1409.292626  	94.284338 
1410.729213  	94.179620 
1412.165801  	94.149931 
1413.602389  	94.219660 
1415.038977  	94.438058 
1416.475565  	94.813606 
1417.912152  	95.240476 
1419.348740  	95.558731 
1420.785328  	95.906048 
1422.221916  	96.425532 
1423.658504  	96.842778 
1425.095091  	97.039364 
1426.531679  	97.331562 
1427.968267  	97.579304 
1429.404855  	97.609455 
1430.841443  	97.677738 
1432.278030  	97.741435 
1433.714618  	97.841062 
1435.151206  	97.999257 
1436.587794  	97.742541 
1438.024381  	97.424813 
1439.460969  	97.494026 
1440.897557  	97.460929 
1442.334145  	97.350857 
1443.770733  	97.291387 
1445.207320  	97.293170 
1446.643908  	97.383360 
1448.080496  	97.361805 
1449.517084  	97.414259 
1450.953672  	97.644111 
1452.390259  	97.762850 
1453.826847  	97.946196 
1455.263435  	98.254131 
1456.700023  	98.194220 
1458.136611  	97.959504 
1459.573198  	98.105028 
1461.009786  	98.291885 
1462.446374  	98.524514 
1463.882962  	98.663326 
1465.319550  	98.573082 
1466.756137  	98.593831 
1468.192725  	98.726326 
1469.629313  	98.895270 
1471.065901  	99.077483 
1472.502489  	98.972510 
1473.939076  	98.803756 
1475.375664  	98.899206 
1476.812252  	98.896969 
1478.248840  	98.900332 
1479.685427  	99.032584 
1481.122015  	99.035760 
1482.558603  	98.964641 
1483.995191  	99.046205 
1485.431779  	99.141102 
1486.868366  	99.168967 
1488.304954  	99.220879 
1489.741542  	99.183181 
1491.178130  	99.023715 
1492.614718  	99.089624 
1494.051305  	99.308420 
1495.487893  	99.375492 
1496.924481  	99.223429 
1498.361069  	99.162431 
1499.797657  	99.163283 
1501.234244  	99.146180 
1502.670832  	99.247664 
1504.107420  	99.477009 
1505.544008  	99.608230 
1506.980596  	99.170335 
1508.417183  	98.866373 
1509.853771  	99.062240 
1511.290359  	99.181759 
1512.726947  	99.129411 
1514.163535  	99.220589 
1515.600122  	99.342128 
1517.036710  	99.145803 
1518.473298  	99.142145 
1519.909886  	99.424565 
1521.346474  	99.241998 
1522.783061  	98.939033 
1524.219649  	99.155139 
1525.656237  	99.204428 
1527.092825  	99.062437 
1528.529412  	99.065807 
1529.966000  	99.104468 
1531.402588  	99.269317 
1532.839176  	99.320718 
1534.275764  	98.946397 
1535.712351  	99.008233 
1537.148939  	99.363525 
1538.585527  	99.475573 
1540.022115  	99.145640 
1541.458703  	98.861404 
1542.895290  	98.949415 
1544.331878  	99.072374 
1545.768466  	98.968170 
1547.205054  	99.068087 
1548.641642  	99.262845 
1550.078229  	99.126284 
1551.514817  	99.104247 
1552.951405  	99.293256 
1554.387993  	99.216844 
1555.824581  	99.275443 
1557.261168  	99.700076 
1558.697756  	99.620363 
1560.134344  	98.732638 
1561.570932  	98.938237 
1563.007520  	99.270793 
1564.444107  	99.294668 
1565.880695  	99.202923 
1567.317283  	99.350993 
1568.753871  	99.432575 
1570.190458  	99.173703 
1571.627046  	99.099345 
1573.063634  	99.297115 
1574.500222  	99.466946 
1575.936810  	99.293654 
1577.373397  	98.976144 
1578.809985  	99.066977 
1580.246573  	99.184411 
1581.683161  	99.138469 
1583.119749  	99.137009 
1584.556336  	99.152496 
1585.992924  	99.122984 
1587.429512  	99.139919 
1588.866100  	99.122429 
1590.302688  	99.079410 
1591.739275  	99.074133 
1593.175863  	99.044486 
1594.612451  	99.001426 
1596.049039  	98.949410 
1597.485627  	98.933167 
1598.922214  	98.993230 
1600.358802  	99.025672 
1601.795390  	99.033635 
1603.231978  	99.050245 
1604.668566  	99.047331 
1606.105153  	99.075717 
1607.541741  	99.078504 
1608.978329  	99.046367 
1610.414917  	99.059992 
1611.851505  	99.035352 
1613.288092  	99.093185 
1614.724680  	99.290846 
1616.161268  	99.244152 
1617.597856  	98.912843 
1619.034443  	98.935892 
1620.471031  	99.130717 
1621.907619  	99.230518 
1623.344207  	99.087611 
1624.780795  	98.979129 
1626.217382  	99.120434 
1627.653970  	99.160908 
1629.090558  	99.031625 
1630.527146  	99.046081 
1631.963734  	99.161911 
1633.400321  	99.323057 
1634.836909  	99.351886 
1636.273497  	98.914492 
1637.710085  	98.835174 
1639.146673  	99.054961 
1640.583260  	99.091259 
1642.019848  	99.107023 
1643.456436  	99.232206 
1644.893024  	99.302696 
1646.329612  	99.211709 
1647.766199  	98.902470 
1649.202787  	98.944600 
1650.639375  	99.390075 
1652.075963  	99.698143 
1653.512551  	98.883929 
1654.949138  	98.665783 
1656.385726  	99.034606 
1657.822314  	99.210508 
1659.258902  	99.236440 
1660.695490  	99.349265 
1662.132077  	99.402523 
1663.568665  	99.217171 
1665.005253  	99.247473 
1666.441841  	99.476444 
1667.878428  	99.575971 
1669.315016  	99.496074 
1670.751604  	99.333894 
1672.188192  	99.385708 
1673.624780  	99.662705 
1675.061367  	99.588844 
1676.497955  	99.295212 
1677.934543  	99.520269 
1679.371131  	99.639348 
1680.807719  	99.604774 
1682.244306  	99.920838 
1683.680894  	99.943263 
1685.117482  	99.258591 
1686.554070  	99.422464 
1687.990658  	99.693914 
1689.427245  	99.715841 
1690.863833  	99.664071 
1692.300421  	99.722044 
1693.737009  	99.994589 
1695.173597  	100.044974 
1696.610184  	99.604329 
1698.046772  	99.896515 
1699.483360  	100.247230 
1700.919948  	99.510521 
1702.356536  	99.535485 
1703.793123  	99.994562 
1705.229711  	99.950292 
1706.666299  	99.740021 
1708.102887  	99.821912 
1709.539474  	99.830781 
1710.976062  	99.863900 
1712.412650  	99.978345 
1713.849238  	99.993163 
1715.285826  	100.036901 
1716.722413  	100.078843 
1718.159001  	99.763348 
1719.595589  	99.618080 
1721.032177  	99.828187 
1722.468765  	99.951229 
1723.905352  	99.900302 
1725.341940  	99.868687 
1726.778528  	99.903412 
1728.215116  	99.971952 
1729.651704  	99.981510 
1731.088291  	100.020428 
1732.524879  	100.231228 
1733.961467  	100.055965 
1735.398055  	99.540836 
1736.834643  	99.827245 
1738.271230  	100.128041 
1739.707818  	99.950100 
1741.144406  	99.898040 
1742.580994  	100.015494 
1744.017582  	99.938951 
1745.454169  	99.978531 
1746.890757  	100.074808 
1748.327345  	100.048945 
1749.763933  	100.092179 
1751.200521  	99.982590 
1752.637108  	99.810101 
1754.073696  	99.983245 
1755.510284  	100.123150 
1756.946872  	99.980400 
1758.383459  	99.957310 
1759.820047  	100.094758 
1761.256635  	100.077478 
1762.693223  	99.889562 
1764.129811  	99.889419 
1765.566398  	100.095477 
1767.002986  	100.162929 
1768.439574  	100.005826 
1769.876162  	100.080340 
1771.312750  	100.187144 
1772.749337  	99.911196 
1774.185925  	99.832887 
1775.622513  	99.978008 
1777.059101  	100.000840 
1778.495689  	100.064639 
1779.932276  	100.094123 
1781.368864  	99.965976 
1782.805452  	100.011422 
1784.242040  	100.081239 
1785.678628  	99.964666 
1787.115215  	99.966576 
1788.551803  	100.086864 
1789.988391  	100.182800 
1791.424979  	100.177933 
1792.861567  	99.962336 
1794.298154  	99.914515 
1795.734742  	100.051362 
1797.171330  	100.078469 
1798.607918  	100.128222 
1800.044505  	100.192580 
1801.481093  	100.070648 
1802.917681  	100.032113 
1804.354269  	100.124226 
1805.790857  	100.171993 
1807.227444  	100.226710 
1808.664032  	100.259602 
1810.100620  	100.233281 
1811.537208  	100.194711 
1812.973796  	100.177631 
1814.410383  	100.285121 
1815.846971  	100.393034 
1817.283559  	100.332472 
1818.720147  	100.273896 
1820.156735  	100.267205 
1821.593322  	100.284142 
1823.029910  	100.362548 
1824.466498  	100.306927 
1825.903086  	100.200191 
1827.339674  	100.343554 
1828.776261  	100.438787 
1830.212849  	100.255903 
1831.649437  	100.172764 
1833.086025  	100.287529 
1834.522613  	100.331886 
1835.959200  	100.292919 
1837.395788  	100.325274 
1838.832376  	100.340683 
1840.268964  	100.308075 
1841.705552  	100.406766 
1843.142139  	100.465156 
1844.578727  	100.229461 
1846.015315  	100.148355 
1847.451903  	100.291469 
1848.888490  	100.328016 
1850.325078  	100.286606 
1851.761666  	100.285349 
1853.198254  	100.278688 
1854.634842  	100.271396 
1856.071429  	100.276954 
1857.508017  	100.295520 
1858.944605  	100.322126 
1860.381193  	100.305123 
1861.817781  	100.283113 
1863.254368  	100.321805 
1864.690956  	100.365519 
1866.127544  	100.412550 
1867.564132  	100.467918 
1869.000720  	100.368072 
1870.437307  	100.193240 
1871.873895  	100.205765 
1873.310483  	100.265146 
1874.747071  	100.245863 
1876.183659  	100.258984 
1877.620246  	100.308027 
1879.056834  	100.329299 
1880.493422  	100.340115 
1881.930010  	100.341882 
1883.366598  	100.333465 
1884.803185  	100.302056 
1886.239773  	100.306067 
1887.676361  	100.388815 
1889.112949  	100.370826 
1890.549536  	100.264251 
1891.986124  	100.313941 
1893.422712  	100.372947 
1894.859300  	100.319621 
1896.295888  	100.313230 
1897.732475  	100.357087 
1899.169063  	100.372377 
1900.605651  	100.366543 
1902.042239  	100.354391 
1903.478827  	100.355176 
1904.915414  	100.336727 
1906.352002  	100.326852 
1907.788590  	100.338907 
1909.225178  	100.255264 
1910.661766  	100.181924 
1912.098353  	100.228281 
1913.534941  	100.225170 
1914.971529  	100.214186 
1916.408117  	100.276719 
1917.844705  	100.231404 
1919.281292  	100.176680 
1920.717880  	100.298908 
1922.154468  	100.338005 
1923.591056  	100.206931 
1925.027644  	100.214981 
1926.464231  	100.298825 
1927.900819  	100.231398 
1929.337407  	100.169689 
1930.773995  	100.215057 
1932.210583  	100.203764 
1933.647170  	100.152188 
1935.083758  	100.160595 
1936.520346  	100.149084 
1937.956934  	100.045343 
1939.393521  	99.981190 
1940.830109  	100.062740 
1942.266697  	100.083637 
1943.703285  	100.007882 
1945.139873  	100.098360 
1946.576460  	100.182663 
1948.013048  	100.082638 
1949.449636  	100.037259 
1950.886224  	100.118612 
1952.322812  	100.242557 
1953.759399  	100.283147 
1955.195987  	100.192457 
1956.632575  	100.248567 
1958.069163  	100.409589 
1959.505751  	100.431422 
1960.942338  	100.512230 
1962.378926  	100.538288 
1963.815514  	100.351192 
1965.252102  	100.361168 
1966.688690  	100.448116 
1968.125277  	100.408090 
1969.561865  	100.569197 
1970.998453  	100.787281 
1972.435041  	100.840249 
1973.871629  	100.871880 
1975.308216  	100.831843 
1976.744804  	100.698482 
1978.181392  	100.409309 
1979.617980  	100.143953 
1981.054567  	100.291253 
1982.491155  	100.576524 
1983.927743  	100.683295 
1985.364331  	100.727141 
1986.800919  	100.739064 
1988.237506  	100.805733 
1989.674094  	100.947140 
1991.110682  	100.991322 
1992.547270  	101.010742 
1993.983858  	101.015800 
1995.420445  	100.981211 
1996.857033  	101.065659 
1998.293621  	101.164358 
1999.730209  	101.229605 
2001.166797  	101.364682 
2002.603384  	101.373289 
2004.039972  	101.286953 
2005.476560  	101.328316 
2006.913148  	101.374135 
2008.349736  	101.292622 
2009.786323  	101.233641 
2011.222911  	101.304663 
2012.659499  	101.276240 
2014.096087  	101.159839 
2015.532675  	101.271696 
2016.969262  	101.289961 
2018.405850  	101.126852 
2019.842438  	101.247728 
2021.279026  	101.333687 
2022.715614  	101.292261 
2024.152201  	101.426522 
2025.588789  	101.435822 
2027.025377  	101.533299 
2028.461965  	101.787529 
2029.898552  	101.578254 
2031.335140  	101.349547 
2032.771728  	101.445474 
2034.208316  	101.394516 
2035.644904  	101.288003 
2037.081491  	101.285197 
2038.518079  	101.282006 
2039.954667  	101.205903 
2041.391255  	101.081793 
2042.827843  	101.159032 
2044.264430  	101.231750 
2045.701018  	101.041786 
2047.137606  	100.937766 
2048.574194  	100.837233 
2050.010782  	100.668776 
2051.447369  	100.833666 
2052.883957  	101.067172 
2054.320545  	101.007508 
2055.757133  	100.944488 
2057.193721  	100.960135 
2058.630308  	100.891544 
2060.066896  	100.810413 
2061.503484  	100.794097 
2062.940072  	100.888884 
2064.376660  	101.027611 
2065.813247  	101.023498 
2067.249835  	100.956843 
2068.686423  	100.931282 
2070.123011  	100.863434 
2071.559598  	100.778404 
2072.996186  	100.749534 
2074.432774  	100.764694 
2075.869362  	100.799440 
2077.305950  	100.796063 
2078.742537  	100.786768 
2080.179125  	100.806417 
2081.615713  	100.798067 
2083.052301  	100.848854 
2084.488889  	100.963667 
2085.925476  	100.956272 
2087.362064  	100.901181 
2088.798652  	100.934371 
2090.235240  	100.945916 
2091.671828  	100.941746 
2093.108415  	100.992628 
2094.545003  	101.015336 
2095.981591  	100.970499 
2097.418179  	100.911350 
2098.854767  	100.902755 
2100.291354  	100.932180 
2101.727942  	100.906441 
2103.164530  	100.876338 
2104.601118  	100.856189 
2106.037706  	100.775779 
2107.474293  	100.787107 
2108.910881  	100.884742 
2110.347469  	100.856358 
2111.784057  	100.805593 
2113.220645  	100.828517 
2114.657232  	100.826857 
2116.093820  	100.852647 
2117.530408  	100.916135 
2118.966996  	100.935586 
2120.403583  	100.912405 
2121.840171  	100.845938 
2123.276759  	100.832002 
2124.713347  	100.908356 
2126.149935  	100.926640 
2127.586522  	100.972543 
2129.023110  	101.159060 
2130.459698  	101.303062 
2131.896286  	101.388246 
2133.332874  	101.414011 
2134.769461  	101.222178 
2136.206049  	100.996095 
2137.642637  	100.927926 
2139.079225  	100.984142 
2140.515813  	101.153926 
2141.952400  	101.193579 
2143.388988  	100.999472 
2144.825576  	100.928515 
2146.262164  	101.006832 
2147.698752  	100.995593 
2149.135339  	101.031965 
2150.571927  	101.168690 
2152.008515  	101.189789 
2153.445103  	101.157731 
2154.881691  	101.391963 
2156.318278  	101.787557 
2157.754866  	101.728699 
2159.191454  	101.120531 
2160.628042  	100.670805 
2162.064629  	100.667597 
2163.501217  	100.691599 
2164.937805  	100.614488 
2166.374393  	100.628131 
2167.810981  	100.786974 
2169.247568  	100.914369 
2170.684156  	100.908344 
2172.120744  	100.961728 
2173.557332  	101.125058 
2174.993920  	101.120247 
2176.430507  	100.953418 
2177.867095  	100.942045 
2179.303683  	101.025473 
2180.740271  	100.938116 
2182.176859  	100.799022 
2183.613446  	100.867802 
2185.050034  	100.978355 
2186.486622  	100.937351 
2187.923210  	100.928757 
2189.359798  	101.014196 
2190.796385  	101.065900 
2192.232973  	101.094858 
2193.669561  	101.110447 
2195.106149  	101.107265 
2196.542737  	101.078061 
2197.979324  	100.981663 
2199.415912  	100.900840 
2200.852500  	100.868899 
2202.289088  	100.872461 
2203.725676  	100.959963 
2205.162263  	100.999872 
2206.598851  	100.938276 
2208.035439  	100.879376 
2209.472027  	100.832583 
2210.908614  	100.893974 
2212.345202  	100.984444 
2213.781790  	100.896103 
2215.218378  	100.836899 
2216.654966  	100.919780 
2218.091553  	100.960153 
2219.528141  	100.961412 
2220.964729  	100.916216 
2222.401317  	100.819467 
2223.837905  	100.798941 
2225.274492  	100.854518 
2226.711080  	100.910268 
2228.147668  	100.868229 
2229.584256  	100.760178 
2231.020844  	100.752670 
2232.457431  	100.772407 
2233.894019  	100.774908 
2235.330607  	100.845108 
2236.767195  	100.849608 
2238.203783  	100.764380 
2239.640370  	100.729001 
2241.076958  	100.732049 
2242.513546  	100.788676 
2243.950134  	100.862410 
2245.386722  	100.826301 
2246.823309  	100.740595 
2248.259897  	100.735990 
2249.696485  	100.801062 
2251.133073  	100.829333 
2252.569661  	100.811838 
2254.006248  	100.816671 
2255.442836  	100.776772 
2256.879424  	100.697509 
2258.316012  	100.694199 
2259.752599  	100.694744 
2261.189187  	100.687658 
2262.625775  	100.756707 
2264.062363  	100.787143 
2265.498951  	100.727487 
2266.935538  	100.700627 
2268.372126  	100.716885 
2269.808714  	100.702457 
2271.245302  	100.663095 
2272.681890  	100.644622 
2274.118477  	100.624239 
2275.555065  	100.601773 
2276.991653  	100.626627 
2278.428241  	100.646812 
2279.864829  	100.635907 
2281.301416  	100.612014 
2282.738004  	100.533090 
2284.174592  	100.494155 
2285.611180  	100.567790 
2287.047768  	100.608781 
2288.484355  	100.582053 
2289.920943  	100.568899 
2291.357531  	100.578936 
2292.794119  	100.614193 
2294.230707  	100.646765 
2295.667294  	100.661687 
2297.103882  	100.676009 
2298.540470  	100.665907 
2299.977058  	100.658355 
2301.413645  	100.674156 
2302.850233  	100.673586 
2304.286821  	100.666580 
2305.723409  	100.639973 
2307.159997  	100.615400 
2308.596584  	100.666006 
2310.033172  	100.698039 
2311.469760  	100.658975 
2312.906348  	100.649964 
2314.342936  	100.658178 
2315.779523  	100.668389 
2317.216111  	100.697725 
2318.652699  	100.678755 
2320.089287  	100.623511 
2321.525875  	100.545312 
2322.962462  	100.429390 
2324.399050  	100.441711 
2325.835638  	100.644483 
2327.272226  	100.849310 
2328.708814  	100.911592 
2330.145401  	100.874802 
2331.581989  	100.868765 
2333.018577  	100.906633 
2334.455165  	100.925721 
2335.891753  	100.942520 
2337.328340  	100.934518 
2338.764928  	100.877814 
2340.201516  	100.867395 
2341.638104  	100.897041 
2343.074692  	100.886435 
2344.511279  	100.839953 
2345.947867  	100.724696 
2347.384455  	100.659968 
2348.821043  	100.819488 
2350.257630  	101.073189 
2351.694218  	101.176046 
2353.130806  	101.113240 
2354.567394  	101.071780 
2356.003982  	101.051114 
2357.440569  	101.050028 
2358.877157  	101.105915 
2360.313745  	101.143574 
2361.750333  	101.142659 
2363.186921  	101.126872 
2364.623508  	101.091003 
2366.060096  	101.068332 
2367.496684  	101.089171 
2368.933272  	101.123280 
2370.369860  	101.069787 
2371.806447  	100.946355 
2373.243035  	100.904334 
2374.679623  	100.900219 
2376.116211  	100.832790 
2377.552799  	100.790619 
2378.989386  	100.809748 
2380.425974  	100.817565 
2381.862562  	100.795549 
2383.299150  	100.778470 
2384.735738  	100.791764 
2386.172325  	100.799839 
2387.608913  	100.784909 
2389.045501  	100.791912 
2390.482089  	100.800262 
2391.918676  	100.794151 
2393.355264  	100.820505 
2394.791852  	100.835650 
2396.228440  	100.800910 
2397.665028  	100.777147 
2399.101615  	100.776598 
2400.538203  	100.771274 
2401.974791  	100.770213 
2403.411379  	100.793802 
2404.847967  	100.808360 
2406.284554  	100.760867 
2407.721142  	100.724395 
2409.157730  	100.744650 
2410.594318  	100.715717 
2412.030906  	100.662778 
2413.467493  	100.678352 
2414.904081  	100.695073 
2416.340669  	100.684181 
2417.777257  	100.693732 
2419.213845  	100.703906 
2420.650432  	100.703677 
2422.087020  	100.731468 
2423.523608  	100.783848 
2424.960196  	100.786017 
2426.396784  	100.730402 
2427.833371  	100.698046 
2429.269959  	100.675256 
2430.706547  	100.659336 
2432.143135  	100.710109 
2433.579723  	100.734470 
2435.016310  	100.686581 
2436.452898  	100.679470 
2437.889486  	100.698722 
2439.326074  	100.696736 
2440.762661  	100.697499 
2442.199249  	100.673940 
2443.635837  	100.645146 
2445.072425  	100.660031 
2446.509013  	100.692604 
2447.945600  	100.706039 
2449.382188  	100.678503 
2450.818776  	100.647059 
2452.255364  	100.662465 
2453.691952  	100.675280 
2455.128539  	100.653553 
2456.565127  	100.636204 
2458.001715  	100.649513 
2459.438303  	100.689047 
2460.874891  	100.702644 
2462.311478  	100.691921 
2463.748066  	100.711736 
2465.184654  	100.704113 
2466.621242  	100.655429 
2468.057830  	100.658177 
2469.494417  	100.672382 
2470.931005  	100.650883 
2472.367593  	100.660171 
2473.804181  	100.685230 
2475.240769  	100.688779 
2476.677356  	100.686902 
2478.113944  	100.645124 
2479.550532  	100.595388 
2480.987120  	100.632895 
2482.423707  	100.687460 
2483.860295  	100.659192 
2485.296883  	100.617812 
2486.733471  	100.617107 
2488.170059  	100.621729 
2489.606646  	100.634250 
2491.043234  	100.635503 
2492.479822  	100.587891 
2493.916410  	100.547058 
2495.352998  	100.548227 
2496.789585  	100.544812 
2498.226173  	100.536638 
2499.662761  	100.550666 
2501.099349  	100.579696 
2502.535937  	100.611818 
2503.972524  	100.622111 
2505.409112  	100.608663 
2506.845700  	100.600200 
2508.282288  	100.588987 
2509.718876  	100.587334 
2511.155463  	100.625429 
2512.592051  	100.647434 
2514.028639  	100.612566 
2515.465227  	100.580551 
2516.901815  	100.595407 
2518.338402  	100.634044 
2519.774990  	100.647705 
2521.211578  	100.631656 
2522.648166  	100.642917 
2524.084754  	100.675467 
2525.521341  	100.675205 
2526.957929  	100.671319 
2528.394517  	100.688291 
2529.831105  	100.684451 
2531.267692  	100.658952 
2532.704280  	100.645349 
2534.140868  	100.645266 
2535.577456  	100.652604 
2537.014044  	100.685681 
2538.450631  	100.738211 
2539.887219  	100.749101 
2541.323807  	100.718937 
2542.760395  	100.699076 
2544.196983  	100.675105 
2545.633570  	100.668333 
2547.070158  	100.714100 
2548.506746  	100.729999 
2549.943334  	100.689649 
2551.379922  	100.664993 
2552.816509  	100.670116 
2554.253097  	100.688874 
2555.689685  	100.687105 
2557.126273  	100.665242 
2558.562861  	100.680467 
2559.999448  	100.683698 
2561.436036  	100.643355 
2562.872624  	100.652462 
2564.309212  	100.691230 
2565.745800  	100.685355 
2567.182387  	100.658617 
2568.618975  	100.633078 
2570.055563  	100.628188 
2571.492151  	100.644808 
2572.928738  	100.649209 
2574.365326  	100.649212 
2575.801914  	100.651223 
2577.238502  	100.667422 
2578.675090  	100.695433 
2580.111677  	100.664112 
2581.548265  	100.620062 
2582.984853  	100.652657 
2584.421441  	100.675841 
2585.858029  	100.658014 
2587.294616  	100.657986 
2588.731204  	100.634903 
2590.167792  	100.602478 
2591.604380  	100.623782 
2593.040968  	100.655914 
2594.477555  	100.667300 
2595.914143  	100.666196 
2597.350731  	100.645222 
2598.787319  	100.632248 
2600.223907  	100.637996 
2601.660494  	100.637201 
2603.097082  	100.635153 
2604.533670  	100.623690 
2605.970258  	100.590298 
2607.406846  	100.582747 
2608.843433  	100.613680 
2610.280021  	100.619061 
2611.716609  	100.589256 
2613.153197  	100.569849 
2614.589785  	100.569886 
2616.026372  	100.581899 
2617.462960  	100.585607 
2618.899548  	100.567639 
2620.336136  	100.574298 
2621.772723  	100.605248 
2623.209311  	100.592697 
2624.645899  	100.563173 
2626.082487  	100.568223 
2627.519075  	100.565809 
2628.955662  	100.551445 
2630.392250  	100.559770 
2631.828838  	100.552166 
2633.265426  	100.514854 
2634.702014  	100.494399 
2636.138601  	100.489922 
2637.575189  	100.492397 
2639.011777  	100.508681 
2640.448365  	100.500297 
2641.884953  	100.466741 
2643.321540  	100.449671 
2644.758128  	100.426950 
2646.194716  	100.407709 
2647.631304  	100.437491 
2649.067892  	100.454123 
2650.504479  	100.417507 
2651.941067  	100.392889 
2653.377655  	100.386901 
2654.814243  	100.376340 
2656.250831  	100.380011 
2657.687418  	100.384779 
2659.124006  	100.383179 
2660.560594  	100.394781 
2661.997182  	100.405064 
2663.433769  	100.410365 
2664.870357  	100.425218 
2666.306945  	100.432029 
2667.743533  	100.425156 
2669.180121  	100.424418 
2670.616708  	100.433822 
2672.053296  	100.446695 
2673.489884  	100.454639 
2674.926472  	100.456578 
2676.363060  	100.461210 
2677.799647  	100.463253 
2679.236235  	100.458054 
2680.672823  	100.458461 
2682.109411  	100.472683 
2683.545999  	100.495158 
2684.982586  	100.505442 
2686.419174  	100.494178 
2687.855762  	100.489188 
2689.292350  	100.498511 
2690.728938  	100.498055 
2692.165525  	100.491705 
2693.602113  	100.486429 
2695.038701  	100.478442 
2696.475289  	100.478167 
2697.911877  	100.472968 
2699.348464  	100.462182 
2700.785052  	100.479976 
2702.221640  	100.500336 
2703.658228  	100.490419 
2705.094816  	100.483635 
2706.531403  	100.479143 
2707.967991  	100.460427 
2709.404579  	100.455750 
2710.841167  	100.462754 
2712.277754  	100.460630 
2713.714342  	100.448616 
2715.150930  	100.425501 
2716.587518  	100.416707 
2718.024106  	100.439432 
2719.460693  	100.460406 
2720.897281  	100.457769 
2722.333869  	100.444800 
2723.770457  	100.446206 
2725.207045  	100.464094 
2726.643632  	100.464184 
2728.080220  	100.445040 
2729.516808  	100.439864 
2730.953396  	100.448140 
2732.389984  	100.454532 
2733.826571  	100.454920 
2735.263159  	100.452779 
2736.699747  	100.452340 
2738.136335  	100.444962 
2739.572923  	100.434494 
2741.009510  	100.428800 
2742.446098  	100.422339 
2743.882686  	100.425209 
2745.319274  	100.424332 
2746.755862  	100.402143 
2748.192449  	100.400399 
2749.629037  	100.416777 
2751.065625  	100.402501 
2752.502213  	100.385805 
2753.938800  	100.395960 
2755.375388  	100.401971 
2756.811976  	100.386843 
2758.248564  	100.361184 
2759.685152  	100.354615 
2761.121739  	100.371793 
2762.558327  	100.364314 
2763.994915  	100.325162 
2765.431503  	100.300163 
2766.868091  	100.299898 
2768.304678  	100.298433 
2769.741266  	100.282401 
2771.177854  	100.271318 
2772.614442  	100.272375 
2774.051030  	100.262234 
2775.487617  	100.250176 
2776.924205  	100.242202 
2778.360793  	100.207076 
2779.797381  	100.162669 
2781.233969  	100.136729 
2782.670556  	100.107900 
2784.107144  	100.081935 
2785.543732  	100.068769 
2786.980320  	100.044241 
2788.416908  	100.017669 
2789.853495  	100.002171 
2791.290083  	99.974956 
2792.726671  	99.940427 
2794.163259  	99.924782 
2795.599847  	99.925062 
2797.036434  	99.921680 
2798.473022  	99.910885 
2799.909610  	99.912849 
2801.346198  	99.928383 
2802.782785  	99.919685 
2804.219373  	99.887349 
2805.655961  	99.883274 
2807.092549  	99.905097 
2808.529137  	99.902073 
2809.965724  	99.888555 
2811.402312  	99.903708 
2812.838900  	99.917572 
2814.275488  	99.908142 
2815.712076  	99.903736 
2817.148663  	99.907418 
2818.585251  	99.910939 
2820.021839  	99.917321 
2821.458427  	99.915153 
2822.895015  	99.907883 
2824.331602  	99.903689 
2825.768190  	99.895208 
2827.204778  	99.892539 
2828.641366  	99.893943 
2830.077954  	99.880688 
2831.514541  	99.863980 
2832.951129  	99.854245 
2834.387717  	99.852478 
2835.824305  	99.862623 
2837.260893  	99.858846 
2838.697480  	99.832596 
2840.134068  	99.818475 
2841.570656  	99.813070 
2843.007244  	99.790927 
2844.443832  	99.766157 
2845.880419  	99.743820 
2847.317007  	99.708468 
2848.753595  	99.680072 
2850.190183  	99.676228 
2851.626770  	99.675530 
2853.063358  	99.680694 
2854.499946  	99.705180 
2855.936534  	99.723643 
2857.373122  	99.728900 
2858.809709  	99.726948 
2860.246297  	99.705174 
2861.682885  	99.685951 
2863.119473  	99.687060 
2864.556061  	99.681277 
2865.992648  	99.657234 
2867.429236  	99.620491 
2868.865824  	99.591147 
2870.302412  	99.578897 
2871.739000  	99.536564 
2873.175587  	99.466945 
2874.612175  	99.423397 
2876.048763  	99.380875 
2877.485351  	99.332146 
2878.921939  	99.316176 
2880.358526  	99.286130 
2881.795114  	99.210422 
2883.231702  	99.148504 
2884.668290  	99.109267 
2886.104878  	99.044258 
2887.541465  	98.949450 
2888.978053  	98.853063 
2890.414641  	98.752922 
2891.851229  	98.628363 
2893.287816  	98.485092 
2894.724404  	98.322355 
2896.160992  	98.120013 
2897.597580  	97.897694 
2899.034168  	97.686734 
2900.470755  	97.488024 
2901.907343  	97.315169 
2903.343931  	97.200362 
2904.780519  	97.170889 
2906.217107  	97.231636 
2907.653694  	97.353822 
2909.090282  	97.503073 
2910.526870  	97.674859 
2911.963458  	97.867566 
2913.400046  	98.029259 
2914.836633  	98.140769 
2916.273221  	98.246560 
2917.709809  	98.342696 
2919.146397  	98.419534 
2920.582985  	98.501795 
2922.019572  	98.582903 
2923.456160  	98.647606 
2924.892748  	98.666828 
2926.329336  	98.638104 
2927.765924  	98.620827 
2929.202511  	98.598445 
2930.639099  	98.530220 
2932.075687  	98.456241 
2933.512275  	98.382526 
2934.948863  	98.289663 
2936.385450  	98.164897 
2937.822038  	97.987646 
2939.258626  	97.790625 
2940.695214  	97.563314 
2942.131801  	97.261646 
2943.568389  	96.925503 
2945.004977  	96.524476 
2946.441565  	95.984854 
2947.878153  	95.324696 
2949.314740  	94.510297 
2950.751328  	93.491365 
2952.187916  	92.261161 
2953.624504  	90.778602 
2955.061092  	89.084443 
2956.497679  	87.236129 
2957.934267  	85.312253 
2959.370855  	83.640989 
2960.807443  	82.510757 
2962.244031  	82.069423 
2963.680618  	82.422063 
2965.117206  	83.438599 
2966.553794  	84.945033 
2967.990382  	86.710551 
2969.426970  	88.472237 
2970.863557  	90.170050 
2972.300145  	91.722718 
2973.736733  	93.043053 
2975.173321  	94.166282 
2976.609909  	95.110339 
2978.046496  	95.891554 
2979.483084  	96.525336 
2980.919672  	97.037073 
2982.356260  	97.489417 
2983.792847  	97.860295 
2985.229435  	98.136712 
2986.666023  	98.382559 
2988.102611  	98.596711 
2989.539199  	98.777785 
2990.975786  	98.936399 
2992.412374  	99.051429 
2993.848962  	99.165381 
2995.285550  	99.282443 
2996.722138  	99.355522 
2998.158725  	99.414228 
2999.595313  	99.464225 
3001.031901  	99.506062 
3002.468489  	99.569649 
3003.905077  	99.608881 
3005.341664  	99.616904 
3006.778252  	99.640595 
3008.214840  	99.670485 
3009.651428  	99.710939 
3011.088016  	99.747769 
3012.524603  	99.755047 
3013.961191  	99.768448 
3015.397779  	99.780551 
3016.834367  	99.779566 
3018.270955  	99.801387 
3019.707542  	99.829366 
3021.144130  	99.852481 
3022.580718  	99.878819 
3024.017306  	99.883825 
3025.453894  	99.876645 
3026.890481  	99.880227 
3028.327069  	99.899676 
3029.763657  	99.922572 
3031.200245  	99.912308 
3032.636832  	99.886582 
3034.073420  	99.873199 
3035.510008  	99.861454 
3036.946596  	99.874890 
3038.383184  	99.886918 
3039.819771  	99.858416 
3041.256359  	99.853482 
3042.692947  	99.869714 
3044.129535  	99.859473 
3045.566123  	99.869551 
3047.002710  	99.886059 
3048.439298  	99.863262 
3049.875886  	99.845763 
3051.312474  	99.829922 
3052.749062  	99.801583 
3054.185649  	99.823580 
3055.622237  	99.874560 
3057.058825  	99.886857 
3058.495413  	99.898628 
3059.932001  	99.931903 
3061.368588  	99.939189 
3062.805176  	99.911509 
3064.241764  	99.874680 
3065.678352  	99.870239 
3067.114940  	99.907224 
3068.551527  	99.919894 
3069.988115  	99.904847 
3071.424703  	99.913525 
3072.861291  	99.929120 
3074.297878  	99.953080 
3075.734466  	99.984702 
3077.171054  	99.979200 
3078.607642  	99.987403 
3080.044230  	100.031383 
3081.480817  	100.019824 
3082.917405  	99.981917 
3084.353993  	99.994058 
3085.790581  	100.012143 
3087.227169  	100.008329 
3088.663756  	100.003050 
3090.100344  	100.005217 
3091.536932  	100.022032 
3092.973520  	100.024752 
3094.410108  	99.994819 
3095.846695  	99.981266 
3097.283283  	100.002087 
3098.719871  	100.011529 
3100.156459  	100.000239 
3101.593047  	99.991304 
3103.029634  	99.990587 
3104.466222  	100.015868 
3105.902810  	100.047985 
3107.339398  	100.034739 
3108.775986  	100.026235 
3110.212573  	100.056820 
3111.649161  	100.050092 
3113.085749  	100.022507 
3114.522337  	100.035499 
3115.958925  	100.060297 
3117.395512  	100.075688 
3118.832100  	100.074159 
3120.268688  	100.079404 
3121.705276  	100.111484 
3123.141863  	100.091622 
3124.578451  	100.051991 
3126.015039  	100.086833 
3127.451627  	100.103961 
3128.888215  	100.083404 
3130.324802  	100.110867 
3131.761390  	100.133557 
3133.197978  	100.129439 
3134.634566  	100.136900 
3136.071154  	100.130552 
3137.507741  	100.123397 
3138.944329  	100.128861 
3140.380917  	100.134361 
3141.817505  	100.157731 
3143.254093  	100.174149 
3144.690680  	100.163210 
3146.127268  	100.157874 
3147.563856  	100.168410 
3149.000444  	100.187032 
3150.437032  	100.190613 
3151.873619  	100.164947 
3153.310207  	100.138404 
3154.746795  	100.138856 
3156.183383  	100.182887 
3157.619971  	100.224432 
3159.056558  	100.199681 
3160.493146  	100.173745 
3161.929734  	100.195320 
3163.366322  	100.192759 
3164.802909  	100.166890 
3166.239497  	100.191368 
3167.676085  	100.254272 
3169.112673  	100.263026 
3170.549261  	100.199505 
3171.985848  	100.178924 
3173.422436  	100.238067 
3174.859024  	100.282890 
3176.295612  	100.288362 
3177.732200  	100.275475 
3179.168787  	100.247894 
3180.605375  	100.238927 
3182.041963  	100.247403 
3183.478551  	100.243951 
3184.915139  	100.230726 
3186.351726  	100.220388 
3187.788314  	100.225300 
3189.224902  	100.225465 
3190.661490  	100.205223 
3192.098078  	100.200491 
3193.534665  	100.217786 
3194.971253  	100.253921 
3196.407841  	100.303368 
3197.844429  	100.291162 
3199.281017  	100.226606 
3200.717604  	100.214092 
3202.154192  	100.229027 
3203.590780  	100.214643 
3205.027368  	100.212036 
3206.463956  	100.235264 
3207.900543  	100.259758 
3209.337131  	100.270072 
3210.773719  	100.257591 
3212.210307  	100.258602 
3213.646894  	100.273046 
3215.083482  	100.252660 
3216.520070  	100.247772 
3217.956658  	100.282572 
3219.393246  	100.259191 
3220.829833  	100.211418 
3222.266421  	100.241980 
3223.703009  	100.268867 
3225.139597  	100.235483 
3226.576185  	100.227903 
3228.012772  	100.256609 
3229.449360  	100.265351 
3230.885948  	100.241843 
3232.322536  	100.217820 
3233.759124  	100.238507 
3235.195711  	100.270442 
3236.632299  	100.264685 
3238.068887  	100.254588 
3239.505475  	100.242770 
3240.942063  	100.229210 
3242.378650  	100.257151 
3243.815238  	100.277461 
3245.251826  	100.250185 
3246.688414  	100.236186 
3248.125002  	100.236139 
3249.561589  	100.218843 
3250.998177  	100.192893 
3252.434765  	100.160683 
3253.871353  	100.143222 
3255.307940  	100.144208 
3256.744528  	100.150120 
3258.181116  	100.177056 
3259.617704  	100.192254 
3261.054292  	100.180840 
3262.490879  	100.196510 
3263.927467  	100.217129 
3265.364055  	100.216091 
3266.800643  	100.216760 
3268.237231  	100.191731 
3269.673818  	100.155201 
3271.110406  	100.153009 
3272.546994  	100.167869 
3273.983582  	100.184541 
3275.420170  	100.164131 
3276.856757  	100.112976 
3278.293345  	100.129175 
3279.729933  	100.175943 
3281.166521  	100.174577 
3282.603109  	100.168448 
3284.039696  	100.155635 
3285.476284  	100.148361 
3286.912872  	100.195832 
3288.349460  	100.222403 
3289.786048  	100.191988 
3291.222635  	100.174917 
3292.659223  	100.187525 
3294.095811  	100.207566 
3295.532399  	100.215390 
3296.968987  	100.218253 
3298.405574  	100.211933 
3299.842162  	100.166767 
3301.278750  	100.146185 
3302.715338  	100.175944 
3304.151925  	100.191558 
3305.588513  	100.215314 
3307.025101  	100.223328 
3308.461689  	100.182346 
3309.898277  	100.171086 
3311.334864  	100.148551 
3312.771452  	100.108871 
3314.208040  	100.155821 
3315.644628  	100.192383 
3317.081216  	100.176605 
3318.517803  	100.197997 
3319.954391  	100.196124 
3321.390979  	100.188540 
3322.827567  	100.224543 
3324.264155  	100.210063 
3325.700742  	100.187589 
3327.137330  	100.219554 
3328.573918  	100.231376 
3330.010506  	100.223517 
3331.447094  	100.223221 
3332.883681  	100.230581 
3334.320269  	100.236634 
3335.756857  	100.205061 
3337.193445  	100.184168 
3338.630033  	100.196382 
3340.066620  	100.192043 
3341.503208  	100.217430 
3342.939796  	100.256445 
3344.376384  	100.228444 
3345.812971  	100.189421 
3347.249559  	100.178270 
3348.686147  	100.177288 
3350.122735  	100.202350 
3351.559323  	100.225382 
3352.995910  	100.231148 
3354.432498  	100.236847 
3355.869086  	100.220598 
3357.305674  	100.202851 
3358.742262  	100.226623 
3360.178849  	100.254784 
3361.615437  	100.238997 
3363.052025  	100.214273 
3364.488613  	100.242960 
3365.925201  	100.299059 
3367.361788  	100.312504 
3368.798376  	100.293988 
3370.234964  	100.288168 
3371.671552  	100.283041 
3373.108140  	100.263043 
3374.544727  	100.258460 
3375.981315  	100.269927 
3377.417903  	100.265992 
3378.854491  	100.271100 
3380.291079  	100.290198 
3381.727666  	100.288400 
3383.164254  	100.299458 
3384.600842  	100.316111 
3386.037430  	100.277174 
3387.474018  	100.236843 
3388.910605  	100.246817 
3390.347193  	100.268856 
3391.783781  	100.287170 
3393.220369  	100.291462 
3394.656956  	100.272763 
3396.093544  	100.249999 
3397.530132  	100.237449 
3398.966720  	100.251361 
3400.403308  	100.272625 
3401.839895  	100.275125 
3403.276483  	100.291009 
3404.713071  	100.314852 
3406.149659  	100.302778 
3407.586247  	100.287404 
3409.022834  	100.307237 
3410.459422  	100.308911 
3411.896010  	100.260158 
3413.332598  	100.244102 
3414.769186  	100.285471 
3416.205773  	100.294372 
3417.642361  	100.292082 
3419.078949  	100.337168 
3420.515537  	100.352235 
3421.952125  	100.313062 
3423.388712  	100.296886 
3424.825300  	100.302429 
3426.261888  	100.286964 
3427.698476  	100.268763 
3429.135064  	100.291589 
3430.571651  	100.324261 
3432.008239  	100.323341 
3433.444827  	100.335783 
3434.881415  	100.346168 
3436.318002  	100.294296 
3437.754590  	100.269374 
3439.191178  	100.326159 
3440.627766  	100.352110 
3442.064354  	100.307289 
3443.500941  	100.294143 
3444.937529  	100.344185 
3446.374117  	100.354674 
3447.810705  	100.307797 
3449.247293  	100.296632 
3450.683880  	100.299037 
3452.120468  	100.288911 
3453.557056  	100.319818 
3454.993644  	100.348329 
3456.430232  	100.338166 
3457.866819  	100.343101 
3459.303407  	100.348320 
3460.739995  	100.321541 
3462.176583  	100.295170 
3463.613171  	100.301178 
3465.049758  	100.330978 
3466.486346  	100.337035 
3467.922934  	100.307421 
3469.359522  	100.283181 
3470.796110  	100.280038 
3472.232697  	100.295043 
3473.669285  	100.312962 
3475.105873  	100.308380 
3476.542461  	100.291398 
3477.979049  	100.294397 
3479.415636  	100.315411 
3480.852224  	100.307699 
3482.288812  	100.274291 
3483.725400  	100.274872 
3485.161987  	100.286106 
3486.598575  	100.283445 
3488.035163  	100.307962 
3489.471751  	100.329440 
3490.908339  	100.321568 
3492.344926  	100.330435 
3493.781514  	100.344597 
3495.218102  	100.326823 
3496.654690  	100.293098 
3498.091278  	100.280216 
3499.527865  	100.304152 
3500.964453  	100.329302 
3502.401041  	100.303010 
3503.837629  	100.244128 
3505.274217  	100.268996 
3506.710804  	100.395834 
3508.147392  	100.447247 
3509.583980  	100.354380 
3511.020568  	100.293386 
3512.457156  	100.315970 
3513.893743  	100.317023 
3515.330331  	100.308866 
3516.766919  	100.330600 
3518.203507  	100.325207 
3519.640095  	100.299211 
3521.076682  	100.338516 
3522.513270  	100.366448 
3523.949858  	100.292340 
3525.386446  	100.278382 
3526.823034  	100.351974 
3528.259621  	100.344011 
3529.696209  	100.289659 
3531.132797  	100.261809 
3532.569385  	100.258381 
3534.005972  	100.300951 
3535.442560  	100.305449 
3536.879148  	100.276840 
3538.315736  	100.315621 
3539.752324  	100.330438 
3541.188911  	100.312561 
3542.625499  	100.362220 
3544.062087  	100.408906 
3545.498675  	100.370138 
3546.935263  	100.278114 
3548.371850  	100.247241 
3549.808438  	100.324354 
3551.245026  	100.359996 
3552.681614  	100.284810 
3554.118202  	100.242222 
3555.554789  	100.295020 
3556.991377  	100.355085 
3558.427965  	100.333243 
3559.864553  	100.296863 
3561.301141  	100.332556 
3562.737728  	100.374497 
3564.174316  	100.465554 
3565.610904  	100.565767 
3567.047492  	100.380081 
3568.484080  	100.111700 
3569.920667  	100.154039 
3571.357255  	100.267860 
3572.793843  	100.319311 
3574.230431  	100.325305 
3575.667018  	100.286903 
3577.103606  	100.291800 
3578.540194  	100.305273 
3579.976782  	100.262243 
3581.413370  	100.271884 
3582.849957  	100.346649 
3584.286545  	100.430350 
3585.723133  	100.501682 
3587.159721  	100.380185 
3588.596309  	100.077733 
3590.032896  	100.059168 
3591.469484  	100.274792 
3592.906072  	100.387157 
3594.342660  	100.334686 
3595.779248  	100.245508 
3597.215835  	100.218143 
3598.652423  	100.283649 
3600.089011  	100.280292 
3601.525599  	100.166328 
3602.962187  	100.184882 
3604.398774  	100.313417 
3605.835362  	100.437550 
3607.271950  	100.490092 
3608.708538  	100.294236 
3610.145126  	100.201864 
3611.581713  	100.408799 
3613.018301  	100.357399 
3614.454889  	100.134133 
3615.891477  	100.291867 
3617.328065  	100.532007 
3618.764652  	100.437782 
3620.201240  	100.097627 
3621.637828  	100.033846 
3623.074416  	100.243075 
3624.511003  	100.333500 
3625.947591  	100.499964 
3627.384179  	100.851074 
3628.820767  	100.472609 
3630.257355  	99.720731 
3631.693942  	100.034056 
3633.130530  	100.315033 
3634.567118  	100.182135 
3636.003706  	100.210533 
3637.440294  	100.293601 
3638.876881  	100.222011 
3640.313469  	100.242060 
3641.750057  	100.270240 
3643.186645  	100.269878 
3644.623233  	100.480908 
3646.059820  	100.687670 
3647.496408  	100.590206 
3648.932996  	100.414092 
3650.369584  	100.097218 
3651.806172  	99.773711 
3653.242759  	100.123423 
3654.679347  	100.559567 
3656.115935  	100.358169 
3657.552523  	100.047684 
3658.989111  	100.182598 
3660.425698  	100.269618 
3661.862286  	100.270322 
3663.298874  	100.298447 
3664.735462  	100.326043 
3666.172049  	100.444790 
3667.608637  	100.660941 
3669.045225  	100.733163 
3670.481813  	100.250462 
3671.918401  	100.038168 
3673.354988  	100.642897 
3674.791576  	100.853128 
3676.228164  	99.923081 
3677.664752  	99.924653 
3679.101340  	100.309191 
3680.537927  	100.232015 
3681.974515  	100.246247 
3683.411103  	100.334019 
3684.847691  	100.358277 
3686.284279  	100.623417 
3687.720866  	100.731364 
3689.157454  	100.356698 
3690.594042  	100.142816 
3692.030630  	100.059935 
3693.467218  	100.078066 
3694.903805  	100.260100 
3696.340393  	100.265126 
3697.776981  	100.207472 
3699.213569  	100.366683 
3700.650157  	100.413387 
3702.086744  	100.207503 
3703.523332  	100.168481 
3704.959920  	100.314348 
3706.396508  	100.410730 
3707.833096  	100.448069 
3709.269683  	100.469582 
3710.706271  	100.425646 
3712.142859  	100.194105 
3713.579447  	99.975230 
3715.016034  	100.110704 
3716.452622  	100.369403 
3717.889210  	100.432124 
3719.325798  	100.409222 
3720.762386  	100.442226 
3722.198973  	100.387923 
3723.635561  	100.358785 
3725.072149  	100.443293 
3726.508737  	100.326107 
3727.945325  	100.160179 
3729.381912  	100.404961 
3730.818500  	100.679005 
3732.255088  	100.597112 
3733.691676  	100.652783 
3735.128264  	100.688298 
3736.564851  	100.122229 
3738.001439  	100.049116 
3739.438027  	100.335527 
3740.874615  	100.472699 
3742.311203  	100.924496 
3743.747790  	101.030771 
3745.184378  	99.827550 
3746.620966  	100.016802 
3748.057554  	100.754758 
3749.494142  	100.672089 
3750.930729  	100.372546 
3752.367317  	100.157968 
3753.803905  	99.949292 
3755.240493  	100.270514 
3756.677080  	100.500934 
3758.113668  	100.449122 
3759.550256  	100.408028 
3760.986844  	100.184436 
3762.423432  	100.282431 
3763.860019  	100.639699 
3765.296607  	100.480915 
3766.733195  	100.298811 
3768.169783  	100.544155 
3769.606371  	100.463058 
3771.042958  	100.174361 
3772.479546  	100.268772 
3773.916134  	100.429489 
3775.352722  	100.452030 
3776.789310  	100.497554 
3778.225897  	100.546155 
3779.662485  	100.345649 
3781.099073  	100.207912 
3782.535661  	100.414508 
3783.972249  	100.501425 
3785.408836  	100.385834 
3786.845424  	100.357083 
3788.282012  	100.353602 
3789.718600  	100.418828 
3791.155188  	100.460267 
3792.591775  	100.389722 
3794.028363  	100.540766 
3795.464951  	100.672943 
3796.901539  	100.406417 
3798.338127  	100.435759 
3799.774714  	100.817704 
3801.211302  	100.626927 
3802.647890  	99.997349 
3804.084478  	100.286944 
3805.521065  	100.766712 
3806.957653  	100.477778 
3808.394241  	100.056212 
3809.830829  	100.306605 
3811.267417  	100.461101 
3812.704004  	100.534383 
3814.140592  	100.814536 
3815.577180  	100.659770 
3817.013768  	100.138801 
3818.450356  	100.447642 
3819.886943  	100.854069 
3821.323531  	100.382055 
3822.760119  	99.940910 
3824.196707  	100.348339 
3825.633295  	100.573239 
3827.069882  	100.338538 
3828.506470  	100.370782 
3829.943058  	100.622819 
3831.379646  	100.606338 
3832.816234  	100.485654 
3834.252821  	100.561226 
3835.689409  	100.722126 
3837.125997  	100.666410 
3838.562585  	100.331352 
3839.999173  	100.240156 
3841.435760  	100.397835 
3842.872348  	100.436065 
3844.308936  	100.358220 
3845.745524  	100.362859 
3847.182111  	100.519161 
3848.618699  	100.638916 
3850.055287  	100.783159 
3851.491875  	101.162246 
3852.928463  	100.995249 
3854.365050  	99.845276 
3855.801638  	99.885914 
3857.238226  	100.306079 
3858.674814  	100.483030 
3860.111402  	100.638225 
3861.547989  	100.638845 
3862.984577  	100.657982 
3864.421165  	100.632735 
3865.857753  	100.291168 
3867.294341  	100.568655 
3868.730928  	101.041963 
3870.167516  	100.529995 
3871.604104  	100.266270 
3873.040692  	100.663673 
3874.477280  	100.497471 
3875.913867  	100.291557 
3877.350455  	100.623567 
3878.787043  	100.870711 
3880.223631  	100.665555 
3881.660219  	100.326092 
3883.096806  	100.555172 
3884.533394  	100.874284 
3885.969982  	100.430833 
3887.406570  	100.153407 
3888.843158  	100.618148 
3890.279745  	100.812221 
3891.716333  	100.458090 
3893.152921  	100.276127 
3894.589509  	100.391761 
3896.026096  	100.560642 
3897.462684  	100.720741 
3898.899272  	100.750626 
3900.335860  	100.601872 
3901.772448  	100.572753 
3903.209035  	100.599213 
3904.645623  	100.345432 
3906.082211  	100.211713 
3907.518799  	100.387074 
3908.955387  	100.516554 
3910.391974  	100.569565 
3911.828562  	100.578372 
3913.265150  	100.582361 
3914.701738  	100.712375 
3916.138326  	100.714671 
3917.574913  	100.525388 
3919.011501  	100.492144 
3920.448089  	100.486724 
3921.884677  	100.513136 
3923.321265  	100.644962 
3924.757852  	100.559343 
3926.194440  	100.428914 
3927.631028  	100.558755 
3929.067616  	100.646299 
3930.504204  	100.613341 
3931.940791  	100.542485 
3933.377379  	100.399649 
3934.813967  	100.400361 
3936.250555  	100.518584 
3937.687142  	100.504876 
3939.123730  	100.486353 
3940.560318  	100.599088 
3941.996906  	100.620244 
3943.433494  	100.483871 
3944.870081  	100.449770 
3946.306669  	100.535878 
3947.743257  	100.563302 
3949.179845  	100.520457 
3950.616433  	100.486992 
3952.053020  	100.475436 
3953.489608  	100.478324 
3954.926196  	100.489852 
3956.362784  	100.522568 
3957.799372  	100.552902 
3959.235959  	100.533883 
3960.672547  	100.496147 
3962.109135  	100.466823 
3963.545723  	100.456202 
3964.982311  	100.482957 
3966.418898  	100.500106 
3967.855486  	100.486440 
3969.292074  	100.473098 
3970.728662  	100.469829 
3972.165250  	100.494472 
3973.601837  	100.515652 
3975.038425  	100.488513 
3976.475013  	100.455684 
3977.911601  	100.449479 
3979.348189  	100.461139 
3980.784776  	100.467732 
3982.221364  	100.458394 
3983.657952  	100.470760 
3985.094540  	100.485036 
3986.531127  	100.474117 
3987.967715  	100.475063 
3989.404303  	100.459950 
3990.840891  	100.432339 
3992.277479  	100.458802 
3993.714066  	100.493511 
3995.150654  	100.486051 
3996.587242  	100.463565 
3998.023830  	100.457740 
3999.460418  	100.482585 
